Black Body Radiation Experiment Wed, Mar 13, 2024 8:55 PM
Sensor Position (Degrees)	Light Intensity (Volts)
0.01015	0.00300
0.01015	0.00078
0.01015	-0.00058
0.01015	-0.00123
0.01015	-0.00132
0.01015	-0.00101
0.01015	-0.00044
0.01015	0.00012
0.01015	0.00027
0.01015	0.00042
0.01015	0.00050
0.01015	0.00019
0.01015	-0.00013
0.01015	-0.00076
0.01015	-0.00085
0.01015	-0.00106
0.01015	-0.00094
0.01015	-0.00076
0.01015	-0.00012
0.01015	-0.00067
0.01015	0.00024
0.02030	0.00115
0.02030	0.00001
0.02030	0.00022
0.02030	0.00046
0.02030	0.00099
0.02030	0.00216
0.02030	0.00356
0.02030	0.00425
0.02030	0.00467
0.04061	0.00472
0.09137	0.00362
0.17259	0.00371
0.22335	0.00123
0.31472	-0.00054
0.33503	-0.00053
0.33503	-0.00055
0.38579	-0.00129
0.41624	-0.00017
0.43655	0.00091
0.44670	0.00185
0.46701	0.00297
0.48731	0.00285
0.49746	0.00207
0.56853	0.00175
0.62944	0.00135
0.63959	0.00207
0.69036	0.00122
0.73096	-0.00042
0.76142	-0.00191
0.88325	-0.00139
0.95431	-0.00113
0.98477	-0.00075
1.09645	0.00016
1.14721	-0.00019
1.18782	0.00053
1.25888	0.00081
1.29949	0.00246
1.31980	0.00210
1.36041	0.00239
1.40102	0.00268
1.43147	0.00406
1.54315	0.00459
1.60406	0.00390
1.61421	0.00291
1.68528	0.00243
1.76650	0.00080
1.80711	0.00004
1.90863	-0.00131
1.96954	-0.00069
2.00000	-0.00045
2.06091	0.00066
2.09137	0.00245
2.11168	0.00460
2.19289	0.00580
2.23350	0.00549
2.26396	0.00440
2.35533	0.00362
2.40609	0.00193
2.43655	0.00244
2.49746	0.00161
2.54822	0.00174
2.56853	0.00283
2.64975	0.00388
2.71066	0.00510
2.74112	0.00681
2.89340	0.00740
2.99492	0.00597
3.03553	0.00502
3.16751	0.00480
3.25888	0.00501
3.28934	0.00529
3.39086	0.00570
3.45178	0.00535
3.48223	0.00586
3.60406	0.00582
3.67513	0.00576
3.70558	0.00678
3.83756	0.00616
3.91878	0.00584
3.96954	0.00498
4.11168	0.00534
4.20305	0.00528
4.23350	0.00391
4.37563	0.00341
4.47716	0.00162
4.50761	0.00294
4.57868	0.00272
4.61929	0.00416
4.63959	0.00505
4.67005	0.00409
4.67005	0.00440
4.67005	0.00431
4.67005	0.00621
4.68020	0.00542
4.71066	0.00484
4.78173	0.00305
4.82234	0.00364
4.84264	0.00563
4.90355	0.00589
4.97462	0.00657
5.00508	0.00525
5.06599	0.00389
5.10660	0.00463
5.11675	0.00638
5.17766	0.00740
5.22843	0.00648
5.24873	0.00482
5.32995	0.00388
5.36041	0.00444
5.37056	0.00587
5.40102	0.00625
5.43147	0.00569
5.46193	0.00370
5.56345	0.00318
5.64467	0.00301
5.67513	0.00476
5.74619	0.00581
5.78680	0.00550
5.80711	0.00486
5.88832	0.00471
5.93909	0.00465
5.95939	0.00494
6.01015	0.00421
6.03046	0.00316
6.04061	0.00139
6.08122	0.00024
6.12183	-0.00104
6.15228	0.00013
6.22335	0.00069
6.27411	-0.00006
6.29442	0.00026
6.40609	-0.00015
6.48731	-0.00111
6.51777	-0.00037
6.60914	0.00053
6.67005	0.00088
6.71066	0.00102
6.82234	0.00080
6.90355	0.00203
6.94416	0.00337
7.08629	0.00392
7.15736	0.00384
7.19797	0.00527
7.30964	0.00445
7.36041	0.00316
7.39086	0.00394
7.46193	0.00320
7.50254	0.00130
7.52284	0.00142
7.59391	0.00138
7.64467	0.00414
7.67513	0.00467
7.76650	0.00516
7.83756	0.00597
7.88832	0.00660
8.01015	0.00565
8.05076	0.00627
8.08122	0.00591
8.16244	0.00524
8.22335	0.00508
8.25381	0.00575
8.31472	0.00616
8.34518	0.00799
8.36548	0.00707
8.44670	0.00668
8.48731	0.00566
8.50761	0.00528
8.56853	0.00486
8.60914	0.00469
8.62944	0.00455
8.72081	0.00495
8.75127	0.00705
8.77157	0.00725
8.83249	0.00852
8.88325	0.00796
8.92386	0.00716
9.04569	0.00688
9.10660	0.00625
9.14721	0.00613
9.27919	0.00657
9.35025	0.00552
9.39086	0.00643
9.51269	0.00546
9.58376	0.00714
9.64467	0.00604
9.74619	0.00621
9.76650	0.00530
9.77665	0.00600
9.82741	0.00499
9.84772	0.00501
9.85787	0.00573
9.93909	0.00690
9.98985	0.00647
10.03046	0.00561
10.16244	0.00492
10.22335	0.00503
10.25381	0.00531
10.34518	0.00508
10.38579	0.00553
10.42640	0.00490
10.52792	0.00427
10.58883	0.00404
10.61929	0.00504
10.68020	0.00432
10.72081	0.00309
10.74112	0.00285
10.80203	0.00402
10.83249	0.00434
10.85279	0.00479
10.90355	0.00422
10.93401	0.00450
10.95431	0.00545
11.01523	0.00665
11.04569	0.00696
11.04569	0.00845
11.10660	0.00852
11.14721	0.00990
11.19797	0.01164
11.22843	0.01199
11.25888	0.01099
11.28934	0.00906
11.30964	0.00798
11.31980	0.00827
11.37056	0.00898
11.42132	0.00846
11.44162	0.00736
11.51269	0.00710
11.54315	0.00634
11.56345	0.00843
11.64467	0.00895
11.68528	0.00884
11.70558	0.00721
11.74619	0.00600
11.77665	0.00554
11.79695	0.00785
11.86802	0.00856
11.91878	0.00779
11.93909	0.00658
11.98985	0.00535
12.03046	0.00574
12.06091	0.00579
12.16244	0.00645
12.23350	0.00571
12.25381	0.00626
12.29442	0.00653
12.34518	0.00714
12.36548	0.00801
12.41624	0.00917
12.44670	0.00828
12.46701	0.00906
12.50761	0.00868
12.53807	0.00931
12.54822	0.00719
12.58883	0.00680
12.61929	0.00620
12.63959	0.00816
12.68020	0.00807
12.72081	0.00752
12.75127	0.00749
12.83249	0.00835
12.92386	0.00789
12.95431	0.00823
13.03553	0.00809
13.07614	0.00884
13.10660	0.00767
13.17766	0.00703
13.19797	0.00738
13.21827	0.00937
13.27919	0.01066
13.32995	0.01144
13.36041	0.01196
13.44162	0.01096
13.48223	0.01053
13.51269	0.00919
13.61421	0.00934
13.70558	0.00949
13.73604	0.00984
13.83756	0.00989
13.88832	0.01104
13.90863	0.01162
13.96954	0.01225
14.00000	0.01319
14.01015	0.01431
14.06091	0.01317
14.11168	0.01417
14.13198	0.01293
14.20305	0.01446
14.26396	0.01479
14.32487	0.01771
14.39594	0.01844
14.44670	0.01857
14.47716	0.01755
14.55838	0.01811
14.59898	0.01844
14.62944	0.01820
14.67005	0.01642
14.71066	0.01619
14.72081	0.01379
14.77157	0.01525
14.80203	0.01593
14.80203	0.01761
14.81218	0.01880
14.83249	0.01903
14.87310	0.01915
14.89340	0.02017
14.95431	0.01999
14.99492	0.01970
15.00508	0.02016
15.06599	0.01996
15.08629	0.01895
15.09645	0.02072
15.15736	0.02130
15.20812	0.02158
15.21827	0.02150
15.26904	0.02192
15.27919	0.02193
15.27919	0.02438
15.29949	0.02471
15.31980	0.02668
15.35025	0.02888
15.37056	0.03169
15.42132	0.03343
15.46193	0.03529
15.48223	0.03518
15.55330	0.03494
15.59391	0.03575
15.64467	0.03738
15.72589	0.03684
15.76650	0.03838
15.77665	0.03799
15.79695	0.03992
15.79695	0.04066
15.80711	0.04324
15.80711	0.04367
15.80711	0.04320
15.82741	0.04271
15.86802	0.04269
15.90863	0.04387
15.91878	0.04225
15.93909	0.04086
15.94924	0.04228
15.95939	0.04338
16.01015	0.04491
16.04061	0.04630
16.05076	0.04880
16.10152	0.05034
16.15228	0.05222
16.20305	0.05324
16.30457	0.05398
16.33503	0.05585
16.35533	0.05626
16.42640	0.05890
16.45685	0.06216
16.48731	0.06505
16.53807	0.06765
16.57868	0.06965
16.61929	0.07371
16.70051	0.07685
16.73096	0.07967
16.76142	0.08362
16.83249	0.08798
16.86294	0.09109
16.88325	0.09409
16.91371	0.09720
16.93401	0.09911
16.94416	0.10132
17.03553	0.10237
17.07614	0.10386
17.09645	0.10783
17.14721	0.10871
17.18782	0.11313
17.20812	0.11852
17.28934	0.12285
17.35025	0.12796
17.37056	0.13400
17.40102	0.13939
17.40102	0.14421
17.41117	0.15026
17.49239	0.15472
17.53299	0.16005
17.55330	0.16782
17.65482	0.17441
17.71574	0.18267
17.77665	0.19058
17.85787	0.19931
17.88832	0.20873
17.90863	0.21815
17.95939	0.22654
18.01015	0.23468
18.03046	0.24426
18.08122	0.25073
18.11168	0.25851
18.14213	0.26996
18.19289	0.27889
18.24365	0.28869
18.26396	0.30291
18.40609	0.31611
18.43655	0.33235
18.45685	0.35342
18.56853	0.37351
18.62944	0.40190
18.70051	0.43463
18.85279	0.46887
18.92386	0.51322
18.98477	0.56793
19.15736	0.62451
19.26904	0.68623
19.34010	0.75139
19.40102	0.80896
19.41117	0.86712
19.43147	0.92119
19.48223	0.96343
19.51269	1.00643
19.55330	1.04422
19.61421	1.07844
19.65482	1.12117
19.69543	1.16918
19.77665	1.21341
19.81726	1.26522
19.86802	1.32335
19.93909	1.38079
19.98985	1.44579
20.03046	1.50974
20.10152	1.56848
20.14213	1.62992
20.17259	1.68736
20.19289	1.73402
20.21320	1.78342
20.23350	1.83143
20.28426	1.86910
20.31472	1.91320
20.35533	1.96409
20.44670	2.01059
20.49746	2.06369
20.51777	2.12063
20.56853	2.17480
20.60914	2.23328
20.61929	2.29173
20.69036	2.34017
20.72081	2.39628
20.74112	2.45342
20.81218	2.50280
20.85279	2.55895
20.86294	2.61650
20.92386	2.66384
20.96447	2.71458
20.97462	2.76329
21.02538	2.80276
21.04569	2.84298
21.05584	2.88013
21.11675	2.90765
21.14721	2.94186
21.16751	2.97874
21.25888	3.01406
21.30964	3.05550
21.31980	3.09883
21.44162	3.14147
21.50254	3.18640
21.52284	3.22903
21.60406	3.26463
21.64467	3.29748
21.67513	3.32370
21.74619	3.34296
21.79695	3.35978
21.81726	3.37166
21.88832	3.37783
21.94924	3.37921
21.96954	3.37163
22.10152	3.35984
22.19289	3.33949
22.23350	3.30872
22.33503	3.27046
22.40609	3.22647
22.43655	3.17535
22.50761	3.12537
22.52792	3.07819
22.53807	3.03610
22.53807	3.00085
22.53807	2.97049
22.53807	2.94565
22.53807	2.93002
22.53807	2.91714
22.53807	2.90714
22.53807	2.90021
22.53807	2.89369
22.53807	2.88542
22.55838	2.87955
22.57868	2.87239
22.59898	2.86301
22.60914	2.85011
22.63959	2.83070
22.67005	2.81149
22.67005	2.78908
22.69036	2.76333
22.71066	2.73731
22.73096	2.70946
22.74112	2.68071
22.78173	2.65252
22.81218	2.62239
22.83249	2.59095
22.87310	2.55916
22.89340	2.52190
22.89340	2.48512
22.90355	2.45138
22.91371	2.41430
22.94416	2.38079
22.95431	2.35088
22.96447	2.32464
22.97462	2.29798
22.98477	2.27662
22.98477	2.25145
23.02538	2.22281
23.05584	2.19552
23.10660	2.16269
23.11675	2.12478
23.16751	2.08295
23.21827	2.03381
23.24873	1.98063
23.30964	1.92817
23.35025	1.87519
23.36041	1.81908
23.40102	1.76878
23.43147	1.71644
23.44162	1.66204
23.49239	1.61852
23.52284	1.57366
23.53299	1.52732
23.57360	1.48724
23.61421	1.44179
23.63452	1.39376
23.67513	1.35159
23.70558	1.30841
23.71574	1.26220
23.75635	1.22161
23.78680	1.17676
23.80711	1.12797
23.86802	1.08551
23.91878	1.03928
23.93909	0.98970
24.01015	0.94431
24.05076	0.89647
24.07107	0.85166
24.10152	0.81389
24.10152	0.78060
24.10152	0.75049
24.10152	0.73061
24.10152	0.71230
24.10152	0.69798
24.10152	0.68922
24.11168	0.67538
24.15228	0.66082
24.18274	0.64600
24.20305	0.62577
24.26396	0.60469
24.30457	0.58170
24.32487	0.55387
24.37563	0.52678
24.40609	0.50001
24.41624	0.47248
24.46701	0.44926
24.49746	0.42884
24.50761	0.40660
24.53807	0.39049
24.55838	0.37337
24.56853	0.35712
24.59898	0.34354
24.61929	0.32924
24.62944	0.31211
24.64975	0.29876
24.69036	0.28496
24.70051	0.27045
24.75127	0.25946
24.78173	0.24688
24.80203	0.23327
24.87310	0.22132
24.93401	0.20777
24.94416	0.19211
25.02538	0.17790
25.09645	0.16313
25.12690	0.14804
25.20812	0.13692
25.25888	0.12568
25.27919	0.11578
25.32995	0.10771
25.36041	0.09924
25.37056	0.09067
25.42132	0.08380
25.44162	0.07781
25.45178	0.07102
25.49239	0.06708
25.51269	0.06263
25.53299	0.05975
25.59391	0.05719
25.64467	0.05321
25.66497	0.05011
25.73604	0.04643
25.77665	0.04373
25.78680	0.03940
25.83756	0.03771
25.88832	0.03614
25.90863	0.03412
25.97970	0.03418
25.98985	0.03316
25.98985	0.03167
25.98985	0.02910
25.98985	0.02713
26.00000	0.02586
26.04061	0.02567
26.08122	0.02499
26.11168	0.02360
26.18274	0.02361
26.23350	0.02241
26.25381	0.02132
26.32487	0.02073
26.38579	0.01945
26.41624	0.01652
26.49746	0.01505
26.56853	0.01603
26.60914	0.01625
26.71066	0.01708
26.81218	0.01640
26.85279	0.01807
27.00508	0.01951
27.06599	0.01891
27.09645	0.01845
27.15736	0.01652
27.20812	0.01619
27.23858	0.01324
27.28934	0.01259
27.31980	0.01301
27.32995	0.01272
27.38071	0.01408
27.43147	0.01424
27.45178	0.01597
27.55330	0.01617
27.62437	0.01541
27.66497	0.01427
27.75635	0.01143
27.81726	0.01107
27.84772	0.00881
27.92893	0.00913
27.97970	0.01100
28.01015	0.01215
28.09137	0.01352
28.14213	0.01494
28.16244	0.01659
28.25381	0.01754
28.31472	0.01705
28.34518	0.01680
28.43655	0.01649
28.48731	0.01589
28.51777	0.01557
28.60914	0.01545
28.65990	0.01491
28.68020	0.01360
28.77157	0.01291
28.83249	0.01228
28.86294	0.01171
28.96447	0.01009
29.02538	0.00822
29.06599	0.00853
29.16751	0.00762
29.23858	0.00675
29.27919	0.00782
29.38071	0.00685
29.46193	0.00589
29.50254	0.00687
29.61421	0.00641
29.69543	0.00585
29.74619	0.00631
29.86802	0.00574
29.95939	0.00605
30.01015	0.00688
30.17259	0.00742
30.26396	0.00807
30.30457	0.00843
30.40609	0.00793
30.44670	0.00754
30.46701	0.00805
30.56853	0.00754
30.64975	0.00664
30.69036	0.00672
30.82234	0.00632
30.91371	0.00593
30.95431	0.00612
31.10660	0.00624
31.21827	0.00559
31.26904	0.00632
31.38071	0.00733
31.45178	0.00721
31.48223	0.00854
31.53299	0.00934
31.55330	0.00911
31.56345	0.01037
31.62437	0.01096
31.68528	0.01089
31.71574	0.01202
31.80711	0.01166
31.88832	0.01090
31.92893	0.01164
32.08122	0.01178
32.19289	0.01186
32.25381	0.01239
32.40609	0.01225
32.50761	0.01372
32.54822	0.01457
32.67005	0.01524
32.73096	0.01477
32.76142	0.01553
32.85279	0.01447
32.92386	0.01265
32.95431	0.01227
33.03553	0.01148
33.10660	0.01059
33.14721	0.01021
33.26904	0.01037
33.36041	0.01204
33.40102	0.01151
33.55330	0.01220
33.65482	0.01402
33.71574	0.01560
33.82741	0.01634
33.90863	0.01567
33.94924	0.01553
33.98985	0.01399
34.03046	0.01241
34.05076	0.01266
34.13198	0.01101
34.20305	0.01160
34.23350	0.01049
34.30457	0.01159
34.34518	0.01369
34.36548	0.01479
34.41624	0.01539
34.45685	0.01434
34.47716	0.01480
34.54822	0.01405
34.62944	0.01496
34.67005	0.01481
34.78173	0.01466
34.85279	0.01637
34.89340	0.01621
35.03553	0.01681
35.12690	0.01530
35.16751	0.01548
35.30964	0.01426
35.43147	0.01417
35.50254	0.01455
35.71574	0.01453
35.86802	0.01477
35.92893	0.01412
36.12183	0.01415
36.23350	0.01408
36.28426	0.01314
36.45685	0.01287
36.55838	0.01300
36.62944	0.01447
36.82234	0.01509
36.95431	0.01557
37.03553	0.01593
37.26904	0.01603
37.44162	0.01667
37.53299	0.01691
37.76650	0.01571
37.92893	0.01481
38.05076	0.01373
38.35533	0.01482
38.58883	0.01654
38.72081	0.01651
39.11675	0.01661
39.39086	0.01515
39.55330	0.01626
40.00000	0.01489
40.25381	0.01644
40.60914	0.01529
40.86294	0.01595
41.22843	0.01522
41.49239	0.01529
41.60406	0.01565
42.01015	0.01719
42.30457	0.01680
42.43655	0.01680
42.92386	0.01548
43.29949	0.01703
43.46193	0.01601
44.01015	0.01673
44.40609	0.01583
44.58883	0.01545
45.19797	0.01380
45.63452	0.01375
45.83756	0.01432
46.43655	0.01648
46.82234	0.01663
46.99492	0.01795
47.54315	0.01818
47.96954	0.01942
48.59898	0.01908
49.05584	0.01867
49.70558	0.01789
50.17259	0.01561
50.86294	0.01495
51.30964	0.01564
51.95939	0.01722
52.38579	0.01956
53.06599	0.02029
53.55330	0.02042
54.48731	0.01960
55.17766	0.02043
56.26396	0.02067
57.03553	0.01954
58.22335	0.01871
59.03553	0.01900
60.38579	0.02004
61.16751	0.02039
62.44670	0.02075
63.36041	0.02232
64.64975	0.02225
65.50254	0.02112
66.86294	0.02166
67.65482	0.02090
68.92386	0.02030
69.74619	0.01804
70.89340	0.01673
71.64467	0.01726
72.84264	0.01233
73.67513	0.01046
74.93401	0.01532
75.72589	0.02748
77.13706	0.04100
77.97970	0.05422
79.28934	0.06638
80.05076	0.07278
80.47716	0.07782
81.46193	0.07758
82.12183	0.07251
82.44670	0.06170
83.35025	0.04652
83.95939	0.03746
84.79188	0.03131
85.34010	0.02767
86.28426	0.02544
86.93401	0.02312
87.85787	0.02106
88.39594	0.01898
89.34010	0.01660
89.89848	0.01367
90.22335	0.00989