Black Body Radiation Experiment Wed, Mar 6, 2024 1:43 PM
Sensor Position (Degrees)	Light Intensity (Volts)
0.01015	-0.00693
0.01015	-0.00289
0.01015	-0.00012
0.01015	0.00157
0.01015	0.00237
0.01015	0.00247
0.01015	0.00206
0.01015	0.00119
0.01015	0.00032
0.01015	-0.00005
0.01015	0.00066
0.02030	0.00008
0.02030	0.00046
0.02030	0.00053
0.02030	0.00136
0.03046	0.00168
0.03046	0.00137
0.03046	0.00117
0.03046	0.00093
0.04061	0.00041
0.04061	-0.00050
0.08122	-0.00057
0.12183	-0.00054
0.44670	-0.00080
0.64975	-0.00012
0.73096	0.00039
1.00508	0.00082
1.14721	0.00042
1.17766	-0.00017
1.29949	0.00040
1.38071	0.00071
1.42132	0.00014
1.58376	-0.00051
1.68528	-0.00080
1.74619	-0.00042
2.08122	-0.00038
2.33503	-0.00025
2.45685	0.00080
2.76142	0.00076
2.96447	0.00110
3.03553	0.00155
3.24873	0.00233
3.35025	0.00223
3.39086	0.00182
3.52284	0.00155
3.60406	0.00127
3.64467	0.00110
3.81726	0.00095
3.94924	0.00095
4.01015	0.00066
4.27411	-0.00014
4.42640	0.00009
4.49746	-0.00009
4.74112	0.00033
4.92386	0.00031
5.00508	0.00158
5.26904	0.00221
5.42132	0.00250
5.49239	0.00287
5.72589	0.00362
5.87817	0.00363
5.94924	0.00325
6.19289	0.00287
6.32487	0.00323
6.39594	0.00285
6.57868	0.00387
6.64975	0.00486
6.70051	0.00489
6.86294	0.00501
6.97462	0.00447
7.04569	0.00394
7.24873	0.00345
7.43147	0.00273
7.54315	0.00253
7.98985	0.00272
8.21320	0.00310
8.30457	0.00367
8.48731	0.00478
8.55838	0.00466
8.58883	0.00413
8.69036	0.00440
8.75127	0.00353
8.79188	0.00282
8.96447	0.00306
9.08629	0.00324
9.15736	0.00392
9.38071	0.00407
9.54315	0.00466
9.65482	0.00522
9.98985	0.00560
10.21320	0.00562
10.38579	0.00530
10.57868	0.00443
10.69036	0.00407
10.74112	0.00432
10.86294	0.00468
10.94416	0.00463
10.97462	0.00421
11.10660	0.00360
11.21827	0.00407
11.26904	0.00401
11.40102	0.00428
11.54315	0.00409
11.62437	0.00331
11.83756	0.00316
11.97970	0.00394
12.05076	0.00452
12.24365	0.00490
12.33503	0.00520
12.38579	0.00508
12.49746	0.00500
12.58883	0.00496
12.62944	0.00426
12.74112	0.00415
12.79188	0.00447
12.83249	0.00484
12.93401	0.00489
12.99492	0.00524
13.03553	0.00524
13.19797	0.00543
13.32995	0.00599
13.45178	0.00570
13.62437	0.00523
13.74619	0.00558
13.78680	0.00498
14.00000	0.00522
14.13198	0.00556
14.20305	0.00525
14.41624	0.00488
14.54822	0.00388
14.60914	0.00351
14.76142	0.00395
14.83249	0.00455
14.87310	0.00482
14.95431	0.00584
15.01523	0.00682
15.04569	0.00726
15.19797	0.00726
15.27919	0.00751
15.29949	0.00683
15.44162	0.00634
15.57360	0.00492
15.64467	0.00507
15.78680	0.00504
15.90863	0.00477
15.93909	0.00570
16.09137	0.00687
16.17259	0.00756
16.21320	0.00818
16.31472	0.00857
16.35533	0.00951
16.39594	0.00885
16.52792	0.00878
16.60914	0.00831
16.63959	0.00789
16.75127	0.00689
16.81218	0.00656
16.84264	0.00685
16.98477	0.00757
17.08629	0.00815
17.13706	0.00815
17.26904	0.00899
17.36041	0.00965
17.41117	0.00991
17.53299	0.00986
17.58376	0.01028
17.61421	0.01005
17.66497	0.00941
17.70558	0.00948
17.74619	0.00994
17.85787	0.01138
17.95939	0.01194
17.98985	0.01228
18.22335	0.01286
18.32487	0.01468
18.37563	0.01627
18.51777	0.01659
18.58883	0.01806
18.64975	0.01837
18.76142	0.01905
18.80203	0.02059
18.86294	0.02200
18.99492	0.02360
19.07614	0.02461
19.12690	0.02646
19.25888	0.02830
19.35025	0.03114
19.41117	0.03380
19.51269	0.03500
19.56345	0.03792
19.58376	0.04084
19.66497	0.04425
19.69543	0.04764
19.72589	0.05058
19.82741	0.05347
19.89848	0.05701
19.92893	0.06150
20.00000	0.06470
20.06091	0.06985
20.10152	0.07672
20.30457	0.08382
20.40609	0.09430
20.49746	0.10610
20.61929	0.11853
20.68020	0.13252
20.72081	0.14701
20.77157	0.15996
20.79188	0.17361
20.81218	0.18603
20.87310	0.19516
20.91371	0.20688
20.95431	0.21921
21.04569	0.23029
21.10660	0.24656
21.16751	0.26732
21.27919	0.28986
21.37056	0.32177
21.45178	0.35929
21.61421	0.39848
21.70558	0.44331
21.79695	0.48955
21.93909	0.53320
21.97970	0.57876
22.02030	0.62178
22.14213	0.65944
22.21320	0.69866
22.30457	0.73584
22.48731	0.76810
22.57868	0.80173
22.64975	0.83088
22.79188	0.85466
22.85279	0.87571
22.89340	0.88937
22.98477	0.89724
23.06599	0.90047
23.15736	0.89551
23.30964	0.88549
23.42132	0.87230
23.48223	0.85192
23.62437	0.82776
23.74619	0.79956
23.78680	0.76803
23.90863	0.73649
23.96954	0.70392
24.00000	0.66966
24.06091	0.64075
24.14213	0.61054
24.17259	0.57931
24.25381	0.55208
24.32487	0.52385
24.36548	0.49288
24.47716	0.46607
24.53807	0.43664
24.56853	0.40624
24.67005	0.37953
24.75127	0.35182
24.79188	0.32325
24.90355	0.29892
24.98477	0.27350
25.02538	0.24890
25.12690	0.22832
25.17766	0.20794
25.19797	0.18819
25.25888	0.17346
25.28934	0.15814
25.30964	0.14397
25.41117	0.13330
25.49239	0.12181
25.51269	0.10968
25.58376	0.09968
25.67513	0.08978
25.71574	0.08005
25.80711	0.07258
25.86802	0.06526
25.88832	0.05808
25.97970	0.05333
26.04061	0.04808
26.07107	0.04444
26.16244	0.04148
26.23350	0.03776
26.26396	0.03383
26.41624	0.03113
26.49746	0.02752
26.54822	0.02425
26.72081	0.02250
26.82234	0.02019
26.87310	0.01838
27.00508	0.01726
27.05584	0.01598
27.08629	0.01637
27.16751	0.01544
27.20812	0.01485
27.20812	0.01447
27.21827	0.01481
27.22843	0.01375
27.26904	0.01334
27.30964	0.01329
27.34010	0.01308
27.45178	0.01360
27.54315	0.01352
27.58376	0.01346
27.70558	0.01314
27.80711	0.01322
27.85787	0.01321
27.97970	0.01259
28.06091	0.01268
28.10152	0.01228
28.17259	0.01239
28.21320	0.01281
28.22335	0.01324
28.25381	0.01408
28.29442	0.01416
28.32487	0.01460
28.40609	0.01494
28.48731	0.01569
28.52792	0.01504
28.70051	0.01416
28.80203	0.01389
28.85279	0.01413
28.99492	0.01397
29.08629	0.01376
29.12690	0.01318
29.21827	0.01260
29.27919	0.01193
29.31980	0.01203
29.42132	0.01175
29.47208	0.01174
29.51269	0.01157
29.64467	0.01154
29.74619	0.01169
29.78680	0.01208
29.94924	0.01275
30.06091	0.01375