Black Body Radiation Experiment Wed, Mar 6, 2024 2:01 PM
Sensor Position (Degrees)	Light Intensity (Volts)
0.01015	-0.00174
0.01015	0.00024
0.03046	0.00136
0.03046	0.00175
0.03046	0.00158
0.03046	0.00099
0.03046	0.00015
0.03046	-0.00124
0.03046	-0.00112
0.04061	-0.00198
0.05076	-0.00171
0.11168	-0.00158
0.17259	-0.00108
0.37563	-0.00045
0.51777	-0.00019
0.56853	-0.00001
0.68020	0.00048
0.70051	0.00089
0.71066	0.00133
0.71066	0.00130
0.72081	0.00152
0.73096	0.00050
0.84264	0.00031
0.95431	0.00030
1.01523	0.00049
1.19797	0.00048
1.28934	-0.00008
1.31980	-0.00033
1.42132	-0.00015
1.49239	0.00044
1.52284	0.00091
1.68528	0.00123
1.76650	0.00094
1.81726	0.00082
1.95939	0.00093
2.04061	0.00097
2.10152	0.00086
2.23350	0.00117
2.33503	-0.00007
2.36548	-0.00074
2.47716	-0.00159
2.54822	-0.00198
2.58883	-0.00178
2.77157	-0.00187
2.91371	-0.00241
2.96447	-0.00218
3.16751	-0.00172
3.32995	-0.00095
3.41117	0.00001
3.64467	0.00084
3.78680	0.00095
3.85787	0.00116
4.04061	0.00085
4.14213	0.00109
4.18274	0.00158
4.29442	0.00124
4.37563	0.00067
4.41624	0.00085
4.52792	0.00100
4.62944	0.00111
4.68020	0.00100
4.85279	0.00086
4.97462	0.00048
5.01523	0.00084
5.20812	0.00106
5.36041	0.00196
5.42132	0.00282
5.62437	0.00337
5.76650	0.00363
5.81726	0.00393
6.02030	0.00314
6.13198	0.00242
6.17259	0.00178
6.25381	0.00029
6.32487	-0.00104
6.36548	-0.00063
6.48731	-0.00046
6.55838	0.00029
6.60914	0.00059
6.76142	0.00108
6.85279	0.00112
6.91371	0.00144
7.10660	0.00145
7.24873	0.00253
7.30964	0.00273
7.45178	0.00247
7.53299	0.00197
7.58376	0.00276
7.74619	0.00293
7.86802	0.00307
7.94924	0.00249
8.10152	0.00212
8.21320	0.00255
8.27411	0.00304
8.42640	0.00390
8.49746	0.00542
8.53807	0.00575
8.67005	0.00628
8.77157	0.00548
8.82234	0.00597
9.05584	0.00521
9.18782	0.00425
9.26904	0.00320
9.48223	0.00286
9.59391	0.00294
9.65482	0.00256
9.80711	0.00282
9.91878	0.00361
9.96954	0.00466
10.07107	0.00543
10.16244	0.00588
10.20305	0.00620
10.30457	0.00584
10.39594	0.00606
10.44670	0.00597
10.60914	0.00564
10.74112	0.00524
10.80203	0.00484
10.96447	0.00432
11.04569	0.00514
11.08629	0.00645
11.23858	0.00677
11.31980	0.00752
11.35025	0.00717
11.46193	0.00773
11.54315	0.00853
11.57360	0.00858
11.74619	0.00871
11.84772	0.00890
11.88832	0.00844
12.04061	0.00815
12.14213	0.00905
12.19289	0.00958
12.33503	0.01000
12.42640	0.01050
12.45685	0.01022
12.56853	0.01009
12.61929	0.01065
12.63959	0.01085
12.75127	0.01123
12.84264	0.01105
12.87310	0.01049
13.02538	0.01013
13.12690	0.01055
13.17766	0.01086
13.31980	0.01158
13.42132	0.01113
13.46193	0.01162
13.59391	0.01170
13.66497	0.01275
13.69543	0.01413
13.84772	0.01498
13.92893	0.01586
13.95939	0.01731
14.10152	0.01760
14.16244	0.01877
14.18274	0.01932
14.27411	0.01928
14.32487	0.01831
14.35533	0.01901
14.44670	0.01898
14.50761	0.01961
14.51777	0.02044
14.61929	0.02094
14.65990	0.02192
14.67005	0.02277
14.72081	0.02333
14.74112	0.02462
14.74112	0.02449
14.77157	0.02415
14.83249	0.02403
14.90355	0.02449
14.94416	0.02534
15.07614	0.02589
15.15736	0.02596
15.19797	0.02704
15.29949	0.02794
15.40102	0.02848
15.44162	0.03055
15.54315	0.03179
15.60406	0.03300
15.62437	0.03499
15.71574	0.03691
15.78680	0.03846
15.83756	0.04038
16.00000	0.04145
16.08122	0.04261
16.14213	0.04538
16.33503	0.04730
16.42640	0.04962
16.47716	0.05335
16.63959	0.05671
16.73096	0.06143
16.81218	0.06676
16.98477	0.07218
17.06599	0.07801
17.11675	0.08393
17.22843	0.08864
17.26904	0.09358
17.28934	0.09887
17.32995	0.10261
17.34010	0.10588
17.36041	0.10970
17.46193	0.11247
17.53299	0.11588
17.57360	0.12112
17.71574	0.12754
17.81726	0.13569
17.87817	0.14526
18.05076	0.15413
18.11168	0.16440
18.13198	0.17466
18.15228	0.18266
18.16244	0.19061
18.18274	0.19926
18.26396	0.20528
18.32487	0.21351
18.37563	0.22417
18.52792	0.23549
18.60914	0.25001
18.65990	0.26644
18.72081	0.28130
18.77157	0.29948
18.81218	0.31781
18.89340	0.33667
18.94416	0.36007
19.01523	0.38594
19.18782	0.41074
19.23858	0.43769
19.28934	0.46431
19.31980	0.48722
19.31980	0.51318
19.32995	0.53867
19.43147	0.56386
19.50254	0.59307
19.57360	0.62236
19.68528	0.65170
19.71574	0.68656
19.72589	0.72376
19.77665	0.75653
19.81726	0.79504
19.88832	0.83694
19.97970	0.87900
20.05076	0.92911
20.10152	0.98195
20.18274	1.03363
20.21320	1.08651
20.24365	1.13847
20.28426	1.18401
20.30457	1.23215
20.33503	1.27853
20.38579	1.31782
20.41624	1.36668
20.44670	1.42036
20.50761	1.47316
20.54822	1.53308
20.58883	1.59607
20.67005	1.65369
20.69036	1.71601
20.71066	1.78100
20.76142	1.83952
20.77157	1.90627
20.80203	1.97651
20.90355	2.04410
20.94416	2.12323
21.00508	2.20849
21.08629	2.28733
21.11675	2.36592
21.11675	2.43593
21.12690	2.49287
21.12690	2.53770
21.12690	2.58090
21.16751	2.62660
21.21827	2.67426
21.26904	2.73174
21.34010	2.79890
21.47208	2.87508
21.53299	2.95993
21.54315	3.04611
21.61421	3.12873
21.65482	3.20394
21.66497	3.27034
21.70558	3.31895
21.72589	3.36877
21.72589	3.41672
21.75635	3.44984
21.78680	3.48847
21.80711	3.52561
21.90863	3.56180
21.96954	3.60541
22.00000	3.64868
22.13198	3.68844
22.20305	3.72653
22.31472	3.76086
22.34518	3.78291
22.34518	3.80290
22.40609	3.81335
22.44670	3.80926
22.52792	3.80094
22.58883	3.78483
22.59898	3.76708
22.68020	3.74492
22.71066	3.71986
22.72081	3.69635
22.73096	3.67342
22.73096	3.65634
22.73096	3.64026
22.74112	3.62369
22.79188	3.60622
22.84264	3.57981
22.86294	3.54411
22.94416	3.50170
23.02538	3.45147
23.05584	3.39543
23.10660	3.33680
23.12690	3.27852
23.13706	3.22394
23.14721	3.17681
23.14721	3.13783
23.14721	3.10322
23.15736	3.07331
23.17766	3.04183
23.20812	3.00903
23.22843	2.97564
23.25888	2.94106
23.27919	2.90599
23.28934	2.86706
23.30964	2.83232
23.32995	2.79909
23.34010	2.76387
23.35025	2.73610
23.37056	2.70304
23.39086	2.65885
23.47208	2.61410
23.52284	2.56096
23.55330	2.50125
23.60406	2.43527
23.63452	2.36510
23.64467	2.28947
23.69543	2.21717
23.73604	2.14137
23.76650	2.06427
23.80711	1.98967
23.86802	1.91033
23.90863	1.82827
23.95939	1.75466
23.96954	1.68567
24.00000	1.62785
24.00000	1.57466
24.00000	1.52986
24.01015	1.49235
24.04061	1.46081
24.06091	1.43232
24.11168	1.40266
24.13198	1.37016
24.15228	1.33250
24.18274	1.29210
24.21320	1.24711
24.26396	1.19954
24.29442	1.14736
24.34518	1.08887
24.40609	1.02478
24.49746	0.96005
24.53807	0.89599
24.59898	0.83642
24.62944	0.78099
24.64975	0.73408
24.65990	0.69513
24.65990	0.66596
24.68020	0.64026
24.71066	0.62198
24.73096	0.60338
24.74112	0.58298
24.79188	0.56068
24.86294	0.53462
24.89340	0.50589
24.98477	0.47611
25.04569	0.44559
25.06599	0.41546
25.11675	0.38605
25.13706	0.35823
25.14721	0.33295
25.18782	0.31397
25.18782	0.29641
25.19797	0.28019
25.19797	0.26639
25.21827	0.25016
25.30964	0.23169
25.43147	0.21332
25.53299	0.19339
25.62437	0.17313
25.67513	0.15245
25.69543	0.13492
25.69543	0.12017
25.69543	0.10958
25.69543	0.10126
25.71574	0.09567
25.74619	0.09007
25.79695	0.08525
25.88832	0.07896
26.02030	0.07266
26.10152	0.06542
26.20305	0.05855
26.25381	0.05221
26.31472	0.04753
26.36548	0.04407
26.41624	0.04079
26.46701	0.03760
26.55838	0.03574
26.61929	0.03395
26.74112	0.03300
26.83249	0.03216
26.92386	0.03116
26.98477	0.02976
27.03553	0.02932
27.07614	0.02918
27.15736	0.02874
27.20812	0.02870
27.27919	0.02814
27.35025	0.02729
27.48223	0.02643
27.55330	0.02564
27.65482	0.02473
27.71574	0.02498
27.78680	0.02392
27.81726	0.02415
27.86802	0.02437
27.88832	0.02440
27.89848	0.02442
27.89848	0.02443
27.90863	0.02416
27.92893	0.02380
28.00000	0.02398
28.08122	0.02376
28.12183	0.02339
28.25381	0.02300
28.32487	0.02279
28.35533	0.02315
28.43655	0.02352
28.45685	0.02438
28.46701	0.02483
28.46701	0.02471
28.49746	0.02472
28.51777	0.02560
28.58883	0.02605
28.63959	0.02590
28.67005	0.02513
28.77157	0.02493
28.86294	0.02511
28.89340	0.02470
28.95431	0.02481
28.95431	0.02477
28.95431	0.02398
28.95431	0.02379
28.96447	0.02386
28.98477	0.02369
29.01523	0.02395
29.02538	0.02443
29.11675	0.02447
29.19797	0.02507
29.24873	0.02493
29.37056	0.02551
29.44162	0.02518
29.46193	0.02550
29.47208	0.02542
29.47208	0.02555
29.47208	0.02538
29.51269	0.02512
29.55330	0.02588
29.58376	0.02654
29.61421	0.02702
29.67513	0.02694
29.70558	0.02728
29.71574	0.02736
29.77665	0.02706
29.86802	0.02627
29.92893	0.02484
30.07107	0.02266