Black Body Radiation Experiment Wed, Mar 13, 2024 7:56 PM
Sensor Position (Degrees)	Light Intensity (Volts)
0.01015	-0.00081
0.01015	-0.00227
0.01015	-0.00261
0.01015	-0.00209
0.01015	-0.00098
0.02030	0.00043
0.02030	0.00188
0.05076	0.00335
0.12183	0.00242
0.14213	0.00069
0.27411	0.00144
0.39594	-0.00046
0.44670	-0.00085
0.56853	0.00003
0.63959	0.00023
0.67005	0.00074
0.76142	0.00096
0.84264	0.00233
0.88325	0.00237
0.97462	0.00272
1.02538	0.00162
1.04569	-0.00107
1.06599	-0.00085
1.08629	-0.00170
1.10660	-0.00082
1.14721	-0.00138
1.16751	-0.00172
1.18782	-0.00223
1.21827	-0.00102
1.25888	-0.00058
1.27919	0.00005
1.34010	0.00061
1.39086	-0.00071
1.41117	-0.00177
1.52284	-0.00170
1.60406	-0.00226
1.63452	-0.00246
1.69543	-0.00389
1.74619	-0.00420
1.77665	-0.00459
1.92893	-0.00484
2.03046	-0.00450
2.09137	-0.00216
2.18274	-0.00206
2.27411	-0.00145
2.30457	0.00079
2.44670	0.00252
2.51777	0.00335
2.54822	0.00448
2.69036	0.00391
2.78173	0.00344
2.81218	0.00219
2.97462	0.00063
3.08629	-0.00040
3.14721	0.00022
3.35025	-0.00234
3.49239	-0.00304
3.57360	-0.00127
3.81726	-0.00157
3.95939	-0.00128
4.05076	0.00066
4.19289	0.00067
4.27411	0.00115
4.31472	0.00323
4.44670	0.00392
4.53807	0.00489
4.56853	0.00636
4.71066	0.00595
4.80203	0.00586
4.83249	0.00466
4.99492	0.00327
5.06599	0.00268
5.10660	0.00358
5.22843	0.00186
5.30964	0.00226
5.35025	0.00236
5.45178	0.00234
5.54315	0.00383
5.59391	0.00579
5.71574	0.00657
5.82741	0.00576
5.86802	0.00436
5.98985	0.00412
6.07107	0.00366
6.13198	0.00445
6.24365	0.00271
6.31472	0.00275
6.43655	0.00153
6.50761	0.00135
6.55838	0.00131
6.67005	0.00188
6.73096	0.00104
6.77157	-0.00016
6.88325	-0.00113
6.99492	-0.00234
7.05584	-0.00160
7.21827	-0.00004
7.32995	0.00193
7.38071	0.00406
7.52284	0.00463
7.61421	0.00379
7.66497	0.00486
7.76650	0.00621
7.84772	0.00569
7.88832	0.00536
7.96954	0.00448
8.04061	0.00313
8.08122	0.00407
8.20305	0.00523
8.27411	0.00640
8.31472	0.00612
8.44670	0.00518
8.55838	0.00603
8.61929	0.00724
8.78173	0.00873
8.87310	0.00784
8.93401	0.00861
9.08629	0.00766
9.20812	0.00829
9.26904	0.00853
9.42132	0.00856
9.52284	0.00756
9.58376	0.00694
9.70558	0.00756
9.77665	0.00830
9.81726	0.00681
9.93909	0.00739
10.03046	0.00577
10.07107	0.00731
10.14213	0.00698
10.20305	0.00841
10.23350	0.00700
10.32487	0.00821
10.41624	0.00667
10.44670	0.00712
10.55838	0.00792
10.62944	0.00762
10.67005	0.00892
10.78173	0.00936
10.84264	0.01050
10.91371	0.01091
11.04569	0.01085
11.11675	0.01002
11.14721	0.00866
11.19797	0.00792
11.22843	0.00637
11.24873	0.00618
11.28934	0.00670
11.31980	0.00676
11.32995	0.00759
11.41117	0.00681
11.46193	0.00772
11.49239	0.00767
11.56345	0.00921
11.62437	0.00891
11.64467	0.00783
11.76650	0.00794
11.86802	0.00816
11.90863	0.00838
12.03046	0.00840
12.09137	0.00881
12.11168	0.00944
12.19289	0.01018
12.25381	0.00959
12.30457	0.00949
12.37563	0.00879
12.44670	0.00908
12.48731	0.00859
12.57868	0.00947
12.61929	0.00875
12.64975	0.00747
12.75127	0.00729
12.82234	0.00835
12.84264	0.00982
12.94416	0.01081
13.01523	0.00972
13.04569	0.00987
13.14721	0.00960
13.22843	0.01125
13.24873	0.01006
13.32995	0.00995
13.41117	0.00969
13.45178	0.00920
13.59391	0.00976
13.66497	0.01007
13.69543	0.01110
13.78680	0.01158
13.85787	0.01082
13.91878	0.01129
14.00000	0.00967
14.05076	0.00903
14.08122	0.00668
14.16244	0.00630
14.23350	0.00663
14.26396	0.00732
14.35533	0.00652
14.40609	0.00783
14.49746	0.00802
14.54822	0.00769
14.55838	0.00865
14.60914	0.00957
14.63959	0.00899
14.65990	0.00942
14.70051	0.00961
14.73096	0.00857
14.75127	0.00917
14.86294	0.00918
14.92386	0.00844
14.95431	0.01028
15.03553	0.00927
15.10660	0.00800
15.15736	0.00965
15.29949	0.01022
15.38071	0.00975
15.43147	0.01086
15.53299	0.01132
15.63452	0.01197
15.68528	0.01334
15.93909	0.01282
16.08122	0.01367
16.16244	0.01468
16.40609	0.01381
16.56853	0.01455
16.79188	0.01629
16.92386	0.01767
16.98477	0.01662
17.19797	0.01849
17.27919	0.01878
17.31980	0.02095
17.48223	0.02108
17.56345	0.02003
17.61421	0.02244
17.74619	0.02386
17.88832	0.02562
17.98985	0.02819
18.19289	0.03001
18.28426	0.03214
18.32487	0.03535
18.50761	0.04101
18.61929	0.04595
18.77157	0.05353
18.87310	0.06284
19.10660	0.07153
19.20812	0.08381
19.26904	0.09487
19.32995	0.10444
19.36041	0.11337
19.38071	0.12239
19.46193	0.12977
19.51269	0.13934
19.53299	0.14856
19.64467	0.15767
19.73604	0.17061
19.78680	0.18702
19.89848	0.20189
19.93909	0.21965
19.97970	0.23695
20.08122	0.25306
20.13198	0.27174
20.15228	0.29097
20.22335	0.30710
20.26396	0.32663
20.31472	0.34774
20.41624	0.36646
20.44670	0.38706
20.46701	0.40578
20.50761	0.42376
20.52792	0.44179
20.56853	0.46204
20.62944	0.48289
20.67005	0.50569
20.75127	0.52860
20.79188	0.55091
20.84264	0.57435
20.88325	0.59958
20.91371	0.62387
20.99492	0.64740
21.03553	0.67017
21.06599	0.69304
21.11675	0.71455
21.12690	0.73939
21.14721	0.76332
21.23858	0.78524
21.27919	0.80837
21.30964	0.83074
21.40102	0.85337
21.47208	0.87996
21.52284	0.90825
21.60406	0.93340
21.65482	0.95919
21.70558	0.98413
21.83756	1.00666
21.88832	1.02807
21.92893	1.04562
22.04061	1.05862
22.08122	1.07018
22.12183	1.07659
22.21320	1.08251
22.25381	1.08539
22.27411	1.08605
22.33503	1.08352
22.37563	1.08200
22.39594	1.08004
22.45685	1.07725
22.48731	1.07333
22.50761	1.06782
22.55838	1.06213
22.60914	1.05474
22.63959	1.04384
22.72081	1.03477
22.77157	1.02335
22.80203	1.01165
22.87310	0.99781
22.91371	0.98162
22.93401	0.96388
23.02538	0.94537
23.08629	0.92493
23.12690	0.90501
23.14721	0.88554
23.15736	0.86592
23.18782	0.84818
23.20812	0.83359
23.21827	0.81963
23.24873	0.80701
23.27919	0.79323
23.29949	0.77753
23.36041	0.76315
23.39086	0.74766
23.41117	0.73131
23.46193	0.71439
23.50254	0.69633
23.51269	0.67877
23.56345	0.66071
23.60406	0.64123
23.63452	0.62126
23.69543	0.60110
23.74619	0.58013
23.76650	0.55827
23.80711	0.53897
23.82741	0.51960
23.83756	0.49924
23.87817	0.48281
23.90863	0.46673
23.91878	0.44998
23.95939	0.43596
23.98985	0.42162
24.01015	0.40634
24.07107	0.39291
24.10152	0.37867
24.11168	0.36385
24.16244	0.35102
24.19289	0.33796
24.21320	0.32416
24.25381	0.31316
24.28426	0.29972
24.29442	0.28647
24.35533	0.27479
24.40609	0.26094
24.43655	0.24666
24.50761	0.23429
24.53807	0.22020
24.55838	0.20756
24.63959	0.19509
24.68020	0.18277
24.70051	0.17223
24.77157	0.16147
24.82234	0.15145
24.84264	0.14152
24.89340	0.13191
24.93401	0.12254
24.95431	0.11328
25.00508	0.10554
25.04569	0.09818
25.05584	0.09088
25.10660	0.08432
25.12690	0.07905
25.13706	0.07365
25.18782	0.07052
25.23858	0.06750
25.25888	0.06283
25.34010	0.05997
25.39086	0.05641
25.42132	0.05201
25.49239	0.04965
25.54315	0.04646
25.57360	0.04171
25.65482	0.03904
25.72589	0.03537
25.75635	0.03227
25.82741	0.03118
25.88832	0.02909
25.91878	0.02802
26.02030	0.02813
26.08122	0.02757
26.12183	0.02587
26.23350	0.02614
26.29442	0.02516
26.32487	0.02262
26.40609	0.02019
26.45685	0.01833
26.48731	0.01854
26.55838	0.01721
26.59898	0.01739
26.62944	0.01810
26.68020	0.01808
26.73096	0.01793
26.75127	0.01647
26.81218	0.01627
26.86294	0.01542
26.89340	0.01382
26.97462	0.01115
27.03553	0.01057
27.06599	0.01265
27.16751	0.01189
27.21827	0.01236
27.23858	0.01329
27.29949	0.01456
27.32995	0.01625
27.36041	0.01630
27.44162	0.01745
27.51269	0.01787
27.60406	0.01785
27.68528	0.01637
27.74619	0.01553
27.90863	0.01497
28.03046	0.01288
28.10152	0.01267
28.28426	0.01232
28.41624	0.01193
28.48731	0.01181
28.69036	0.01147
28.82234	0.01216
28.90355	0.01272
29.06599	0.01308
29.17766	0.01254
29.23858	0.01123
29.39086	0.01099
29.46193	0.01147
29.49239	0.01195
29.62437	0.01115
29.71574	0.01095
29.76650	0.00949
29.88832	0.01042
29.93909	0.01054
29.96954	0.01208
30.03046	0.01303
30.06091	0.01338
30.08122	0.01261
30.15228	0.01222
30.20305	0.01258
30.24365	0.01209
30.33503	0.01199
30.40609	0.01188
30.43655	0.01042
30.54822	0.00996
30.61929	0.00993
30.65990	0.01107
30.75127	0.01195
30.80203	0.01162
30.83249	0.01201
30.92386	0.01191
30.98477	0.01355
31.02538	0.01458
31.13706	0.01545
31.20812	0.01404
31.29949	0.01306
31.37056	0.01157
31.42132	0.01253
31.55330	0.01278
31.66497	0.01303
31.76650	0.01269
32.02030	0.01363
32.20305	0.01379
32.29442	0.01303
32.53807	0.01357
32.71066	0.01223
32.81218	0.01178
33.08629	0.01211
33.26904	0.01225
33.39086	0.01438
33.73604	0.01536
33.96954	0.01535
34.10152	0.01615
34.55838	0.01670
34.80203	0.01548
34.95431	0.01426
35.28934	0.01459
35.51269	0.01337
35.65482	0.01377
36.02030	0.01291
36.26396	0.01203
36.43655	0.01222
36.87310	0.01156
37.20812	0.01033
37.41117	0.01098
38.08122	0.01213
38.53807	0.01169
38.84264	0.01217
39.74619	0.01279
40.44670	0.01375
40.90355	0.01376
41.87817	0.01467
42.51777	0.01537
42.88325	0.01505
44.03046	0.01588
44.78173	0.01618
45.27919	0.01775
46.50761	0.01927
47.49239	0.01775
47.95939	0.01755
49.44162	0.01956
50.49746	0.02017
52.35533	0.02129
53.67513	0.02310
55.67513	0.02407
57.01523	0.02442
59.20812	0.02675
60.48731	0.02861
62.85279	0.03019
64.31472	0.03147
66.63959	0.03075
68.12183	0.02991
70.47716	0.02874
71.93909	0.02828
74.22335	0.03056
75.64467	0.03296
78.16244	0.03443
79.68528	0.03745
82.03046	0.03966
83.35025	0.04275
85.43147	0.04423
86.76142	0.04324
88.88325	0.03899
89.97970	0.03062
91.63452	0.01732