Black Body Radiation Experiment Wed, Mar 13, 2024 8:26 PM
Sensor Position (Degrees)	Light Intensity (Volts)
0.01015	-0.00392
0.01015	-0.00301
0.01015	-0.00195
0.01015	-0.00084
0.01015	0.00025
0.01015	0.00122
0.01015	0.00200
0.01015	0.00190
0.01015	0.00194
0.02030	0.00241
0.02030	0.00173
0.07107	0.00034
0.12183	-0.00003
0.38579	0.00074
0.47716	-0.00082
0.50761	-0.00161
0.62944	-0.00042
0.75127	-0.00055
0.79188	-0.00114
0.95431	-0.00186
1.04569	-0.00044
1.08629	-0.00017
1.17766	0.00016
1.22843	0.00031
1.24873	0.00064
1.37056	0.00066
1.48223	0.00145
1.53299	0.00207
1.71574	0.00223
1.83756	0.00121
1.91878	0.00086
2.21320	0.00127
2.41624	0.00133
2.50761	0.00156
2.72081	0.00107
2.87310	0.00033
2.92386	0.00114
3.09645	0.00064
3.23858	0.00191
3.29949	0.00150
3.49239	0.00142
3.64467	0.00159
3.79695	0.00292
4.06091	0.00353
4.22335	0.00418
4.28426	0.00532
4.42640	0.00456
4.55838	0.00436
4.60914	0.00559
4.78173	0.00509
4.92386	0.00501
4.97462	0.00435
5.16751	0.00414
5.30964	0.00403
5.37056	0.00352
5.55330	0.00365
5.68528	0.00438
5.74619	0.00336
5.92893	0.00425
6.07107	0.00526
6.15228	0.00596
6.41624	0.00570
6.56853	0.00528
6.72081	0.00546
6.94416	0.00623
7.08629	0.00562
7.22843	0.00564
7.43147	0.00672
7.54315	0.00625
7.61421	0.00667
7.84772	0.00881
8.04061	0.00953
8.08122	0.00930
8.28426	0.00896
8.41624	0.00822
8.47716	0.00792
8.72081	0.00748
8.84264	0.00661
8.89340	0.00637
9.10660	0.00672
9.23858	0.00708
9.30964	0.00801
9.52284	0.00932
9.63452	0.01060
9.72589	0.01131
9.91878	0.01117
10.07107	0.01044
10.30457	0.01025
10.40609	0.00957
10.46701	0.00993
10.63959	0.00943
10.80203	0.01015
10.87310	0.00925
11.08629	0.00908
11.22843	0.01041
11.29949	0.01096
11.49239	0.01147
11.63452	0.01168
11.82741	0.01211
11.94924	0.01140
12.00000	0.01233
12.23350	0.01247
12.36548	0.01220
12.41624	0.01066
12.62944	0.00960
12.76142	0.00982
12.82234	0.01019
12.97462	0.01042
13.11675	0.01076
13.17766	0.00975
13.36041	0.00906
13.49239	0.00944
13.55330	0.01049
13.70558	0.01066
13.80711	0.01111
13.86802	0.01067
14.04061	0.01180
14.15228	0.01304
14.19289	0.01326
14.40609	0.01401
14.51777	0.01355
14.56853	0.01372
14.67005	0.01415
14.75127	0.01470
14.79188	0.01460
14.91371	0.01523
15.01523	0.01428
15.10660	0.01380
15.25888	0.01452
15.36041	0.01462
15.41117	0.01506
15.56345	0.01717
15.67513	0.01905
15.83756	0.02047
15.94924	0.02191
16.01015	0.02223
16.22335	0.02382
16.32487	0.02436
16.43655	0.02379
16.60914	0.02510
16.71066	0.02661
16.77157	0.02847
17.01523	0.03095
17.15736	0.03489
17.21827	0.03840
17.51269	0.04228
17.63452	0.04703
17.74619	0.05076
17.91878	0.05678
18.03046	0.06172
18.08122	0.06814
18.31472	0.07865
18.42640	0.08842
18.67005	0.10458
18.82234	0.12583
19.10660	0.15044
19.27919	0.18395
19.42132	0.22595
19.71574	0.27110
19.84772	0.32572
19.96954	0.38744
20.18274	0.44677
20.28426	0.51402
20.35533	0.58581
20.48731	0.65180
20.55838	0.72565
20.62944	0.79984
20.76142	0.86704
20.82234	0.93692
20.87310	1.00298
20.96447	1.06159
21.00508	1.12075
21.04569	1.17466
21.09645	1.21881
21.13706	1.26677
21.17766	1.31047
21.24873	1.34583
21.26904	1.38570
21.28934	1.42197
21.35025	1.45088
21.39086	1.47997
21.40102	1.50946
21.46193	1.53299
21.49239	1.55750
21.51269	1.58280
21.57360	1.60346
21.60406	1.62648
21.62437	1.64811
21.66497	1.66774
21.67513	1.68621
21.67513	1.70279
21.73604	1.71776
21.76650	1.73299
21.78680	1.74776
21.79695	1.76019
21.85787	1.77238
21.88832	1.78550
21.89848	1.79401
21.93909	1.80370
21.94924	1.81232
21.96954	1.81924
22.01015	1.82465
22.04061	1.83000
22.05076	1.83586
22.09137	1.83965
22.10152	1.84367
22.12183	1.84704
22.16244	1.84963
22.18274	1.85196
22.19289	1.85293
22.21320	1.85344
22.25381	1.85342
22.26396	1.85144
22.29442	1.85041
22.32487	1.84775
22.33503	1.84382
22.38579	1.83917
22.41624	1.83370
22.42640	1.82765
22.45685	1.82300
22.47716	1.81708
22.48731	1.81039
22.51777	1.80460
22.54822	1.79850
22.55838	1.79075
22.59898	1.78325
22.62944	1.77448
22.63959	1.76495
22.68020	1.75607
22.72081	1.74490
22.73096	1.73235
22.75127	1.72063
22.79188	1.70765
22.80203	1.69392
22.82234	1.68133
22.84264	1.67041
22.85279	1.66017
22.86294	1.64904
22.87310	1.64113
22.87310	1.63274
22.91371	1.62322
22.95431	1.61250
22.98477	1.60010
23.00508	1.58465
23.06599	1.56815
23.09645	1.54765
23.11675	1.52328
23.18782	1.49985
23.23858	1.47175
23.26904	1.44027
23.29949	1.41303
23.32995	1.38340
23.34010	1.35433
23.38071	1.32893
23.42132	1.30394
23.43147	1.27393
23.48223	1.25034
23.53299	1.22247
23.55330	1.19042
23.62437	1.15995
23.67513	1.12383
23.69543	1.08205
23.76650	1.04397
23.81726	1.00315
23.84772	0.95861
23.93909	0.91760
24.01015	0.87300
24.04061	0.82459
24.12183	0.78225
24.17259	0.73648
24.20305	0.68737
24.30457	0.64336
24.37563	0.59833
24.39594	0.55118
24.50761	0.51172
24.58883	0.47123
24.60914	0.42898
24.71066	0.39324
24.79188	0.35591
24.82234	0.31882
24.92386	0.28768
25.00508	0.25705
25.03553	0.22799
25.14721	0.20571
25.21827	0.18367
25.25888	0.16383
25.34010	0.14795
25.42132	0.13215
25.45178	0.11714
25.57360	0.10526
25.65482	0.09259
25.69543	0.07970
25.81726	0.07128
25.88832	0.06343
25.91878	0.05693
26.02030	0.05193
26.10152	0.04598
26.12183	0.04318
26.23350	0.04063
26.32487	0.03786
26.36548	0.03566
26.49746	0.03404
26.59898	0.03136
26.64975	0.02941
26.82234	0.02807
26.90355	0.02643
26.95431	0.02454
27.10660	0.02280
27.20812	0.02194
27.25888	0.02186
27.40102	0.02182
27.51269	0.02249
27.58376	0.02251
27.76650	0.02292
27.89848	0.02425
27.96954	0.02470
28.16244	0.02504
28.30457	0.02626
28.35533	0.02557
28.55838	0.02601
28.72081	0.02629
28.81218	0.02561
29.04569	0.02403
29.18782	0.02307
29.25888	0.02009
29.46193	0.02071
29.61421	0.02099
29.68528	0.01969
29.88832	0.02016
30.03046	0.02038
30.11168	0.01944
30.34518	0.02011
30.46701	0.01917
30.53807	0.01810
30.73096	0.01704
30.85279	0.01561
30.92386	0.01570
31.14721	0.01698
31.28934	0.01591
31.35025	0.01680
31.59391	0.01718
31.79695	0.01814
31.86802	0.01918
32.17259	0.02059
32.33503	0.02129
32.41624	0.02114
32.68020	0.02234
32.82234	0.02200
32.91371	0.02271
33.12690	0.02179
33.29949	0.02015
33.39086	0.02054
33.65482	0.02049
33.80711	0.02128
33.88832	0.02061
34.11168	0.01956
34.25381	0.01961
34.43655	0.01859
34.59898	0.01993
34.67005	0.01969
34.89340	0.02109
35.03553	0.02097
35.09645	0.02104
35.28934	0.02129
35.44162	0.02182
35.51269	0.02097
35.73604	0.02063
35.89848	0.02043
35.94924	0.02149
36.21320	0.02096
36.40609	0.02103
36.50761	0.02006
36.84264	0.02105
37.05584	0.02039
37.15736	0.02011
37.47208	0.02053
37.65482	0.02094
37.75635	0.02036
38.01015	0.02069
38.18274	0.02119
38.42640	0.02175
38.55838	0.02185
38.62944	0.02234
38.81218	0.02174
38.96447	0.02258
39.02538	0.02201
39.23858	0.02248
39.37056	0.02252
39.44162	0.02246
39.66497	0.02067
39.80711	0.02020
39.88832	0.02028
40.01015	0.02137
40.12183	0.02163
40.18274	0.02226
40.34518	0.02100
40.46701	0.02174
40.50761	0.02157
40.67005	0.02231
40.77157	0.02276
40.81218	0.02399
40.96447	0.02412
41.07614	0.02390
41.23858	0.02341
41.32995	0.02336
41.37056	0.02253
41.50254	0.02129
41.60406	0.02030
41.64467	0.02022
41.80711	0.02145
41.91878	0.02229
42.08122	0.02385
42.19289	0.02343
42.38579	0.02416
42.52792	0.02331
42.57868	0.02395
42.77157	0.02375
42.90355	0.02438
42.96447	0.02293
43.14721	0.02374
43.28934	0.02310
43.35025	0.02480
43.51269	0.02470
43.62437	0.02528
43.68528	0.02422
43.87817	0.02472
44.01015	0.02402
44.23350	0.02359
44.39594	0.02297
44.47716	0.02361
44.69036	0.02233
44.85279	0.02363
44.91371	0.02379
45.11675	0.02505
45.29949	0.02502
45.37056	0.02560
45.58376	0.02453
45.69543	0.02406
45.93909	0.02301
46.10152	0.02137
46.35533	0.02120
46.50761	0.02101
46.74112	0.02120
46.91371	0.02336
47.11675	0.02420
47.24873	0.02641
47.46193	0.02754
47.59391	0.02887
47.76650	0.02845
47.88832	0.02814
48.06091	0.02649
48.20305	0.02570
48.40609	0.02431
48.53807	0.02393
48.74112	0.02452
48.87310	0.02506
48.93401	0.02453
49.12690	0.02455
49.25888	0.02533
49.32995	0.02472
49.52284	0.02408
49.64467	0.02363
49.69543	0.02329
49.87817	0.02424
50.00000	0.02387
50.04061	0.02487
50.20305	0.02446
50.32487	0.02536
50.37563	0.02530
50.60914	0.02535
50.76142	0.02741
51.01523	0.02738
51.18782	0.02846
51.44162	0.02887
51.61421	0.02886
51.86802	0.02857
52.06091	0.02680
52.34518	0.02483
52.52792	0.02242
52.82234	0.02244
53.01523	0.02185
53.28934	0.02214
53.48223	0.02331
53.75635	0.02480
53.92893	0.02737
54.19289	0.02949
54.36548	0.02990
54.62944	0.03032
54.80203	0.02892
55.04569	0.02870
55.19797	0.02784
55.41117	0.02758
55.54315	0.02615
55.71574	0.02555
55.82741	0.02541
55.86802	0.02627
55.97970	0.02842
56.12183	0.02922
56.21320	0.02967
56.34518	0.03019
56.44670	0.03025
56.57868	0.03079
56.67005	0.03027
56.82234	0.02920
56.93401	0.02726
57.07614	0.02654
57.17766	0.02622
57.21827	0.02684
57.40102	0.02771
57.55330	0.02729
57.76650	0.02788
57.92893	0.02760
58.18274	0.02807
58.37563	0.02905
58.65990	0.03020
58.81218	0.03051
59.03553	0.03111
59.16751	0.03108
59.28934	0.03133
59.37056	0.03194
59.47208	0.03192
59.57360	0.03106
59.71574	0.02992
59.81726	0.02847
60.01015	0.02808
60.16244	0.02814
60.39594	0.02835
60.55838	0.02793
60.80203	0.02898
60.96447	0.02843
61.19797	0.02941
61.35025	0.03082
61.43147	0.03104
61.68528	0.03097
61.83756	0.03068
62.09137	0.03055
62.27411	0.03018
62.54822	0.02973
62.71066	0.03019
62.99492	0.02996
63.17766	0.03022
63.25888	0.02961
63.53299	0.02923
63.69543	0.02920
63.94924	0.02829
64.12183	0.02731
64.21320	0.02726
64.44670	0.02871
64.61929	0.02823
64.71066	0.02915
64.95431	0.03090
65.10660	0.03069
65.36041	0.03124
65.53299	0.03264
65.60406	0.03242
65.84772	0.03270
66.02030	0.03183
66.11168	0.03093
66.36548	0.03067
66.53807	0.03011
66.62944	0.02870
66.88325	0.02866
67.07614	0.02685
67.18782	0.02629
67.48223	0.02679
67.69543	0.02726
67.78680	0.02664
68.11168	0.02683
68.33503	0.02827
68.46701	0.02883
68.82234	0.02875
69.04569	0.02990
69.15736	0.03117
69.44162	0.03143
69.65482	0.03009
69.76650	0.03129
70.08122	0.03025
70.30457	0.02845
70.42640	0.02812
70.78173	0.02728
70.98477	0.02791
71.10660	0.02651
71.43147	0.02736
71.64467	0.02951
71.75635	0.03096
72.07107	0.03152
72.29442	0.03154
72.38579	0.03132
72.70051	0.03089
72.92386	0.03129
73.04569	0.03221
73.34010	0.03180
73.54315	0.03072
73.64467	0.02979
73.95939	0.03041
74.18274	0.03051
74.30457	0.02981
74.65990	0.02944
74.88325	0.02802
75.00508	0.02814
75.36041	0.02856
75.61421	0.03078
75.74619	0.03177
76.10152	0.03159
76.34518	0.03093
76.47716	0.03023
76.82234	0.02991
77.04569	0.02879
77.17766	0.02939
77.55330	0.03025
77.80711	0.03276
77.94924	0.03993
78.38579	0.04808
78.69036	0.05935
78.83249	0.07131
79.21827	0.08321
79.45178	0.09379
79.56345	0.10412
79.81726	0.11318
79.93909	0.11828
79.97970	0.12261
80.13198	0.12292
80.22335	0.12267
80.27411	0.12129
80.42640	0.11785
80.54822	0.11312
80.61929	0.10740
80.82234	0.10056
80.95431	0.09306
81.01523	0.08556
81.20812	0.07695
81.31980	0.06808
81.37056	0.06032
81.51269	0.05282
81.61421	0.04612
81.66497	0.04100
81.81726	0.03826
81.92893	0.03568
82.13198	0.03347
82.28426	0.03314
82.36548	0.03232
82.60914	0.03096
82.73096	0.02949
82.77157	0.02853
82.84264	0.02702
82.88325	0.02539
82.90355	0.02458
82.98477	0.02376
83.10660	0.02441
83.17766	0.02382
83.45178	0.02338
83.65482	0.02575
83.77665	0.02621
84.12183	0.02741
84.32487	0.02845
84.44670	0.02911
84.77157	0.02972
85.02538	0.02980
85.15736	0.03069
85.55330	0.03023
85.80711	0.02893
85.93909	0.02775
86.27411	0.02639
86.52792	0.02750
86.61929	0.02668
86.89340	0.02677
87.05584	0.02718
87.14721	0.02658
87.47208	0.02653
87.74619	0.02539
87.88832	0.02528
88.31472	0.02397
88.63959	0.02240
88.80203	0.02126
89.37056	0.02086
89.69543	0.02150
89.87817	0.02351
90.40609	0.02720