Black Body Radiation Experiment Wed, Mar 6, 2024 1:56 PM
Sensor Position (Degrees)	Light Intensity (Volts)
0.01015	-0.00296
0.03046	-0.00218
0.04061	-0.00141
0.04061	-0.00067
0.05076	0.00002
0.20305	0.00064
0.40609	0.00118
0.47716	0.00156
0.70051	0.00202
0.86294	0.00179
0.92386	0.00213
1.07614	0.00281
1.14721	0.00219
1.17766	0.00192
1.23858	0.00169
1.28934	0.00113
1.30964	0.00059
1.40102	0.00068
1.48223	0.00045
1.52284	-0.00009
1.69543	0.00003
1.86802	0.00026
1.95939	0.00153
2.27411	0.00196
2.48731	0.00154
2.60914	0.00215
2.85279	0.00265
2.97462	0.00297
3.02538	0.00333
3.18782	0.00376
3.26904	0.00320
3.29949	0.00314
3.40102	0.00260
3.44162	0.00208
3.46193	0.00230
3.54315	0.00147
3.66497	0.00094
3.72589	0.00129
3.94924	0.00122
4.14213	0.00119
4.25381	0.00142
4.49746	0.00187
4.64975	0.00257
4.72081	0.00275
4.92386	0.00239
5.06599	0.00240
5.12690	0.00301
5.30964	0.00312
5.42132	0.00354
5.46193	0.00363
5.60406	0.00346
5.70558	0.00379
5.76650	0.00370
6.04061	0.00403
6.17259	0.00434
6.26396	0.00363
6.50761	0.00387
6.67005	0.00308
6.76142	0.00299
7.01523	0.00273
7.18782	0.00267
7.27919	0.00325
7.52284	0.00368
7.67513	0.00430
7.75635	0.00396
7.95939	0.00400
8.11168	0.00429
8.20305	0.00494
8.39594	0.00544
8.51777	0.00498
8.56853	0.00495
8.69036	0.00578
8.79188	0.00649
8.84264	0.00718
9.07614	0.00792
9.23858	0.00793
9.31980	0.00738
9.60406	0.00720
9.77665	0.00740
9.97970	0.00764
10.23350	0.00705
10.40609	0.00658
10.48731	0.00629
10.61929	0.00714
10.71066	0.00659
10.73096	0.00720
10.82234	0.00799
10.87310	0.00807
10.89340	0.00843
10.98477	0.00944
11.03553	0.01034
11.05584	0.01063
11.17766	0.01014
11.26904	0.01007
11.28934	0.01039
11.43147	0.01066
11.55330	0.00982
11.66497	0.01006
11.85787	0.00997
11.97970	0.01053
12.04061	0.01041
12.21320	0.01107
12.32487	0.01183
12.35533	0.01198
12.52792	0.01172
12.63959	0.01253
12.69036	0.01338
12.85279	0.01375
12.95431	0.01448
13.04569	0.01505
13.19797	0.01558
13.27919	0.01609
13.32995	0.01590
13.52284	0.01573
13.59391	0.01581
13.63452	0.01547
13.72589	0.01577
13.79695	0.01697
13.82741	0.01734
13.94924	0.01847
14.03046	0.01906
14.06091	0.01949
14.20305	0.02019
14.28426	0.02016
14.36548	0.02024
14.47716	0.01980
14.54822	0.02002
14.56853	0.02097
14.65990	0.02147
14.73096	0.02221
14.77157	0.02240
14.87310	0.02355
14.93401	0.02361
14.96447	0.02490
15.10660	0.02560
15.22843	0.02632
15.27919	0.02716
15.49239	0.02760
15.58376	0.02947
15.66497	0.03127
15.80711	0.03216
15.88832	0.03356
15.91878	0.03513
15.97970	0.03661
16.04061	0.03791
16.12183	0.03993
16.30457	0.04141
16.42640	0.04333
16.48731	0.04581
16.72081	0.04804
16.85279	0.05276
16.92386	0.05723
17.13706	0.06185
17.25888	0.06688
17.34010	0.07277
17.47208	0.07744
17.52284	0.08337
17.55330	0.08921
17.70558	0.09436
17.80711	0.10150
17.92893	0.11206
18.17259	0.12298
18.32487	0.14004
18.44670	0.16041
18.70051	0.18394
18.82234	0.21191
18.93401	0.24169
19.08629	0.26862
19.14721	0.29806
19.18782	0.32694
19.24873	0.35335
19.31980	0.38883
19.39086	0.43214
19.65482	0.47339
19.80711	0.53086
19.95939	0.60233
20.14213	0.68144
20.24365	0.77834
20.35533	0.88850
20.55838	0.99840
20.65990	1.12283
20.73096	1.25226
20.85279	1.37054
20.92386	1.50442
20.97462	1.64285
21.06599	1.77173
21.17766	1.92010
21.29949	2.07773
21.52284	2.23392
21.65482	2.40315
21.75635	2.56995
21.97970	2.72284
22.11168	2.86522
22.20305	2.97572
22.41624	3.04986
22.50761	3.10643
22.57868	3.12524
22.77157	3.11739
22.83249	3.09342
22.84264	3.04302
23.01523	2.98125
23.08629	2.91087
23.12690	2.81980
23.25888	2.72825
23.37056	2.62217
23.43147	2.49633
23.58376	2.37176
23.68528	2.24003
23.73604	2.09625
23.86802	1.96508
23.92893	1.83034
23.96954	1.69394
24.08122	1.57807
24.14213	1.46419
24.17259	1.34989
24.27411	1.25894
24.32487	1.16387
24.36548	1.06559
24.47716	0.98388
24.56853	0.89883
24.62944	0.81051
24.75127	0.73558
24.85279	0.65861
24.89340	0.58355
24.99492	0.52298
25.05584	0.46479
25.08629	0.41084
25.11675	0.37152
25.14721	0.33361
25.15736	0.29925
25.20812	0.27486
25.25888	0.24989
25.29949	0.22510
25.41117	0.20608
25.49239	0.18492
25.54315	0.16337
25.68528	0.14528
25.79695	0.12619
25.85787	0.10820
26.02030	0.09409
26.10152	0.08170
26.14213	0.07028
26.22335	0.06187
26.27411	0.05466
26.29442	0.04861
26.38579	0.04489
26.43655	0.04180
26.45685	0.03815
26.54822	0.03661
26.60914	0.03426
26.62944	0.03260
26.74112	0.03193
26.79188	0.03074
26.80203	0.02933
26.89340	0.02841
26.94416	0.02781
26.98477	0.02692
27.09645	0.02622
27.18782	0.02542
27.22843	0.02507
27.42132	0.02537
27.52284	0.02519
27.56345	0.02501
27.72589	0.02513
27.82741	0.02466
27.88832	0.02457
28.04061	0.02435
28.12183	0.02399
28.15228	0.02261
28.25381	0.02183
28.33503	0.02161
28.35533	0.02162
28.42640	0.02178
28.46701	0.02203
28.48731	0.02241
28.57868	0.02414
28.63959	0.02421
28.67005	0.02446
28.80203	0.02489
28.88325	0.02457
28.93401	0.02399
29.06599	0.02395
29.15736	0.02332
29.17766	0.02196
29.27919	0.02131
29.36041	0.02133
29.39086	0.02104
29.50254	0.02141
29.56345	0.02098
29.58376	0.02139
29.67513	0.02206
29.75635	0.02264
29.79695	0.02299
29.90863	0.02295
29.98985	0.02239
30.04061	0.02116